File: XRD_2/pico_11TI.csv
2Theta,I
70.1444,0.83925
70.1646,1.20295
70.1848,1.78196
70.2049,2.40456
70.2251,3.04622
70.2453,3.57029
70.2655,3.84058
70.2857,3.74696
70.3059,3.31253
70.326,2.57021
70.3462,1.81037
70.3664,1.1754
70.3866,0.692