File: XRD_2/pico_6TI.csv
2Theta,I
53.6747,0.93822
53.6949,1.16547
53.7151,1.5191
53.7353,2.16596
53.7554,3.01895
53.7756,4.30057
53.7958,6.23015
53.816,8.5752
53.8362,11.13229
53.8564,13.20872
53.8765,13.73961
53.8967,12.49774
53.9169,9.91907
53.9371,6.65034
53.9573,4.06408
53.9775,2.34986
53.9976,1.4988
54.0178,1.15947
54.038,1.0425
54.0582,1.01639
54.0784,1.17208
54.0986,1.03952
54.1187,0.88798