File: XRD_2/pico_13TI.csv
2Theta,I
82.5572,0.92192
82.5774,1.22068
82.5976,1.57537
82.6177,1.95762
82.6379,2.18483
82.6581,2.26928
82.6783,2.06863
82.6985,1.77968
82.7187,1.37186
82.7388,1.03678
82.759,0.74366