File: XRD_2/pico_9TI.csv
2Theta,I
62.4949,0.94182
62.515,1.20559
62.5352,1.61065
62.5554,2.26779
62.5756,3.29001
62.5958,4.7376
62.616,6.26953
62.6361,7.75319
62.6563,8.81826
62.6765,9.02568
62.6967,8.09626
62.7169,6.48076
62.7371,4.56087
62.7572,2.68267
62.7774,1.56115
62.7976,0.94884