File: XRD_2/pico_5TI.csv
2Theta,I
47.761,0.8843
47.7811,1.06381
47.8013,1.22602
47.8215,1.34398
47.8417,1.52976
47.8619,1.95566
47.8821,2.67924
47.9022,3.99497
47.9224,5.83954
47.9426,8.62321
47.9628,12.485
47.983,17.19329
48.0032,21.7085
48.0233,24.23262
48.0435,23.40809
48.0637,19.54936
48.0839,14.03939
48.1041,8.93666
48.1243,5.40481
48.1444,3.29472
48.1646,2.03642
48.1848,1.12207
48.205,0.57832