File: XRD_2/pico_1TI.csv
2Theta,I
24.7922,0.85897
24.8124,1.06235
24.8326,1.10561
24.8528,1.12977
24.8729,1.07934
24.8931,1.25048
24.9133,1.3798
24.9335,1.57744
24.9537,1.60204
24.9739,1.73135
24.994,1.87359
25.0142,2.21534
25.0344,2.50589
25.0546,2.93215
25.0748,3.22835
25.095,3.78991
25.1151,4.68526
25.1353,6.18677
25.1555,8.36316
25.1757,12.23007
25.1959,18.44143
25.2161,29.21557
25.2362,45.55634
25.2564,66.58435
25.2766,87.19268
25.2968,100.0
25.317,97.85912
25.3372,81.405
25.3573,57.40597
25.3775,35.38338
25.3977,20.38657
25.4179,12.57046
25.4381,8.13656
25.4583,5.25345
25.4784,3.33994
25.4986,2.81957
25.5188,2.9986
25.539,3.15946
25.5592,2.72994
25.5794,2.10084
25.5995,1.58318
25.6197,1.35324
25.6399,1.42371
25.6601,1.479
25.6803,1.31459
25.7005,1.00611
25.7206,0.84176