File: XRD_2/pico_12TI.csv
2Theta,I
74.8673,0.81325
74.8875,1.08334
74.9077,1.43895
74.9279,1.92542
74.948,2.51837
74.9682,3.42824
74.9884,4.32886
75.0086,5.09522
75.0288,5.48319
75.049,5.28262
75.0691,4.48214
75.0893,3.45984
75.1095,2.39321
75.1297,1.60101
75.1499,1.10222
75.1701,0.79675