File: XRD_2/pico_7TI.csv
2Theta,I
54.8655,0.97133
54.8857,1.25861
54.9059,1.71047
54.9261,2.42433
54.9463,3.52101
54.9664,5.22796
54.9866,7.53373
55.0068,10.07915
55.027,12.37835
55.0472,13.53833
55.0674,12.86514
55.0875,10.73099
55.1077,7.78438
55.1279,4.9591
55.1481,2.9584
55.1683,1.83573
55.1885,1.17377
55.2086,0.911