File: XRD_2/pico_10TI.csv
2Theta,I
68.6104,0.76251
68.6306,1.10016
68.6508,1.55719
68.671,2.0772
68.6912,2.70993
68.7114,3.2827
68.7315,3.57723
68.7517,3.54603
68.7719,3.13241
68.7921,2.51011
68.8123,1.83834
68.8325,1.1966
68.8526,0.72117