File: XRD_2/pico_8TI.csv
2Theta,I
62.0105,0.89293
62.0306,1.2292
62.0508,1.61047
62.071,1.94212
62.0912,2.11057
62.1114,2.02319
62.1316,1.72982
62.1517,1.29562
62.1719,0.89828