File: XRD_2/pico_4TI.csv
2Theta,I
38.416,0.76316
38.4362,1.00256
38.4564,1.39873
38.4766,1.99327
38.4968,2.99756
38.5169,4.21055
38.5371,5.30269
38.5573,5.92048
38.5775,5.74608
38.5977,4.67312
38.6179,3.16867
38.638,1.79552
38.6582,0.86331