File: XRD_2/pico_2TI.csv
2Theta,I
36.8215,0.85226
36.8417,1.31127
36.8619,1.97853
36.8821,2.86138
36.9023,3.91973
36.9225,4.79494
36.9426,5.17648
36.9628,4.91006
36.983,3.98259
37.0032,2.76476
37.0234,1.67879
37.0436,1.10213
37.0637,0.77192