File: XRD_2/pico_3TI.csv
2Theta,I
37.5683,0.84188
37.5885,1.05383
37.6087,1.40436
37.6289,1.87937
37.6491,2.54941
37.6692,3.63842
37.6894,5.34301
37.7096,7.79155
37.7298,11.24013
37.75,15.06845
37.7702,18.02282
37.7903,18.97502
37.8105,17.25435
37.8307,13.33001
37.8509,8.85334
37.8711,5.09077
37.8913,2.53962
37.9114,1.2459
37.9316,0.78596