File: XRD_2/Unknown-sample-04.xy
30.01	59
30.25	61
30.49	64
30.73	57
30.97	56
31.21	56
31.45	54
31.69	51
31.93	53
32.17	50
32.41	46
32.65	37
32.89	48
33.13	54
33.37	58
33.61	41
33.85	52
34.09	62
34.33	60
34.57	56
34.81	54
35.05	54
35.29	48
35.53	50
35.77	65
36.01	60
36.25	63
36.49	70
36.73	86
36.97	101
37.21	99
37.45	193
37.69	278
37.93	708
38.17	2620
38.41	4418
38.65	1601
38.89	464
39.13	213
39.37	133
39.61	100
39.85	78
40.09	72
40.33	78
40.57	54
40.81	59
41.05	57
41.29	65
41.53	61
41.77	62
42.01	56
42.25	60
42.49	70
42.73	63
42.97	56
43.21	85
43.45	102
43.69	125
43.93	181
44.17	348
44.41	943
44.65	1228
44.89	618
45.13	242
45.37	122
45.61	93
45.85	71
46.09	46
46.33	42
46.57	37
46.81	45
47.05	31
47.29	34
47.53	32
47.77	41
48.01	35
48.25	36
48.49	31
48.73	23
48.97	28
49.21	44
49.45	35
49.69	32
49.93	25
50.17	22
50.41	33
50.65	24
50.89	26
51.13	30
51.37	28
51.61	29
51.85	26
52.09	35
52.33	25
52.57	36
52.81	30
53.05	25
53.29	16
53.53	30
53.77	27
54.01	31
54.25	31
54.49	27
54.73	14
54.97	19
55.21	33
55.45	31
55.69	37
55.93	32
56.17	30
56.41	35
56.65	34
56.89	23
57.13	37
57.37	35
57.61	26
57.85	27
58.09	21
58.33	31
58.57	29
58.81	31
59.05	33
59.29	26
59.53	27
59.77	33
60.01	32
60.25	28
60.49	25
60.73	28
60.97	23
61.21	27
61.45	36
61.69	42
61.93	52
62.17	38
62.41	51
62.65	41
62.89	47
63.13	40
63.37	50
63.61	59
63.85	82
64.09	129
64.33	204
64.57	632
64.81	1037
65.05	675
65.29	259
65.53	122
65.77	82
66.01	66
66.25	45
66.49	48
66.73	52
66.97	37
67.21	40
67.45	37
67.69	42
67.93	27
68.17	24
68.41	31
68.65	31
68.89	28
69.13	28
69.37	23
69.61	35
69.85	32
70.09	29
70.33	38
70.57	22
70.81	35
71.05	43
71.29	35
71.53	33
71.77	22
72.01	34
72.25	29
72.49	34
72.73	36
72.97	27
73.21	32
73.45	32
73.69	35
73.93	30
74.17	35
74.41	32
74.65	31
74.89	33
75.13	37
75.37	34
75.61	30
75.85	47
76.09	41
76.33	47
76.57	57
76.81	77
77.05	115
77.29	173
77.53	540
77.77	943
78.01	685
78.25	320
78.49	125
78.73	77
78.97	54
79.21	46
79.45	55
79.69	44
79.93	43
80.17	31
80.41	44
80.65	46
80.89	47
81.13	50
81.37	65
81.61	109
81.85	269
82.09	241
82.33	124
82.57	53
82.81	48
83.05	32
83.29	36
83.53	29
83.77	17
84.01	32
84.25	32
84.49	29
84.73	23
84.97	26
85.21	14
85.45	25
85.69	32
85.93	18
86.17	23
86.41	25
86.65	19
86.89	14
87.13	24
87.37	21
87.61	33
87.85	21
88.09	19
88.33	17
88.57	20
88.81	20
89.05	23
89.29	17
89.53	21
89.77	20
90.01	27
90.25	23
90.49	25
90.73	26
90.97	16
91.21	19
91.45	10
91.69	21
91.93	23
92.17	13
92.41	22
92.65	22
92.89	16
93.13	20
93.37	23
93.61	19
93.85	17
94.09	13
94.33	27
94.57	20
94.81	24
95.05	22
95.29	15
95.53	20
95.77	23
96.01	21
96.25	19
96.49	18
96.73	32
96.97	15
97.21	29
97.45	32
97.69	26
97.93	63
98.17	95
98.41	130
98.65	104
98.89	75
99.13	41
99.37	24
99.61	29
99.85	28
99.99	24