File: XRD_2/Unknown-sample-03.xy
9.99775	180
10.2803	190
10.5629	139
10.8455	162
11.128	178
11.4106	189
11.6932	165
11.97573	129
12.2583	160
12.5409	135
12.8234	155
13.106	123
13.3886	138
13.6711	128
13.9537	154
14.2363	135
14.5188	143
14.8014	121
15.084	133
15.3665	123
15.6491	120
15.9317	144
16.2143	126
16.4968	116
16.7794	124
17.062	131
17.3445	109
17.6271	130
17.9097	110
18.1922	105
18.4748	115
18.7574	112
19.0399	130
19.3225	123
19.6051	115
19.8876	129
20.1702	124
20.4528	103
20.7353	98
21.0179	115
21.3005	123
21.583	98
21.8656	124
22.1482	109
22.4307	110
22.7133	109
22.9959	110
23.2785	97
23.561	111
23.8436	107
24.1262	124
24.4087	195
24.6913	314
24.9739	637
25.2564	15793
25.539	1121
25.8216	313
26.1041	227
26.3867	200
26.6693	186
26.9518	147
27.2344	144
27.517	186
27.7995	173
28.0821	149
28.3647	120
28.6472	143
28.9298	117
29.2124	100
29.495	134
29.7775	105
30.0601	106
30.3427	91
30.6252	83
30.9078	103
31.1904	94
31.4729	91
31.7555	101
32.0381	94
32.3206	90
32.6032	92
32.8858	79
33.1683	76
33.4509	88
33.7335	84
34.016	75
34.2986	84
34.5812	81
34.8637	90
35.1463	64
35.4289	88
35.7114	83
35.994	103
36.2766	100
36.5592	125
36.8417	337
37.1243	299
37.4069	188
37.6894	1269
37.972	781
38.2546	163
38.5371	1306
38.8197	150
39.1023	102
39.3848	83
39.6674	84
39.95	99
40.2325	91
40.5151	78
40.7977	94
41.0802	61
41.3628	88
41.6454	79
41.9279	64
42.2105	63
42.4931	78
42.7756	75
43.0582	79
43.3408	76
43.6234	55
43.9059	72
44.1885	79
44.4711	77
44.7536	77
45.0362	69
45.3188	61
45.6013	80
45.8839	86
46.1665	61
46.449	95
46.7316	100
47.0142	101
47.2967	108
47.5793	145
47.8619	536
48.1444	3246
48.427	169
48.7096	105
48.9921	81
49.2747	75
49.5573	74
49.8399	64
50.1224	87
50.405	59
50.6876	66
50.9701	71
51.2527	68
51.5353	65
51.8178	72
52.1004	74
52.383	82
52.6655	74
52.9481	87
53.2307	88
53.5132	166
53.7958	1385
54.0784	986
54.3609	143
54.6435	135
54.9261	661
55.2086	1707
55.4912	132
55.7738	82
56.0563	72
56.3389	78
56.6215	68
56.9041	65
57.1866	65
57.4692	68
57.7518	67
58.0343	63
58.3169	62
58.5995	59
58.882	73
59.1646	64
59.4472	57
59.7297	59
60.0123	46
60.2949	70
60.5774	53
60.86	63
61.1426	64
61.4251	85
61.7077	71
61.9903	201
62.2728	325
62.5554	594
62.838	1112
63.1206	114
63.4031	65
63.6857	67
63.9683	57
64.2508	57
64.5334	49
64.816	62
65.0985	57
65.3811	47
65.6637	40
65.9462	53
66.2288	62
66.5114	47
66.7939	46
67.0765	55
67.3591	50
67.6416	58
67.9242	64
68.2068	54
68.4893	120
68.7719	757
69.0545	139
69.337	62
69.6196	50
69.9022	88
70.1848	444
70.4673	509
70.7499	61
71.0325	47
71.315	40
71.5976	43
71.8802	44
72.1627	42
72.4453	44
72.7279	46
73.0104	48
73.293	53
73.5756	44
73.8581	49
74.1407	66
74.4233	50
74.7058	87
74.9884	966
75.271	620
75.5535	62
75.8361	74
76.1187	147
76.4012	68
76.6838	37
76.9664	45
77.249	42
77.5315	40
77.8141	34
78.0967	44
78.3792	42
78.6618	31
78.9444	31
79.2269	26
79.5095	38
79.7921	48
80.0746	37
80.3572	33
80.6398	62
80.9223	57
81.2049	35
81.4875	40
81.77	45
82.0526	78
82.3352	84
82.6177	472
82.9003	302
83.1829	200
83.4655	104
83.748	33
84.0306	44
84.3132	27
84.5957	36
84.8783	37
85.1609	33
85.4434	26
85.726	36
86.0086	35
86.2911	34
86.5737	22
86.8563	21
87.1388	39
87.4214	34
87.704	21
87.9865	29
88.2691	27
88.5517	23
88.8342	27
89.1168	33
89.3994	34
89.6819	25
89.9241	29