File: XRD_1/picos2.csv
2Theta	Intensity
27.55899	1071.9
31.8829	38312.9
45.57585	5292.3
53.998	139
56.611	711.8
66.36009	2248.5
75.37904	1049
84.041	216.5